Study Name	Tungsten_Calibration
Sample Name	2024-10-02
Run Name	spot01
Operator	Elena
Date	10/2/2024
Time	9:52
Sign	FIX
Grating Spacing	03.40um
Channel	3
Number Traces	10000
Files in Batch	1
Batch Number	1
dt	100.000001E-12
time stamp (ms)	9:52:54 AM
	
Time	Amplitude
0.000000E+0	6.629319E-4
1.000000E-10	6.046916E-4
2.000000E-10	5.875621E-4
3.000000E-10	5.892751E-4
4.000000E-10	6.183952E-4
5.000000E-10	6.389506E-4
6.000000E-10	6.526542E-4
7.000000E-10	6.629319E-4
8.000000E-10	6.680708E-4
9.000000E-10	6.475154E-4
1.000000E-9	5.704326E-4
1.100000E-9	4.282578E-4
1.200000E-9	2.415462E-4
1.300000E-9	1.147879E-4
1.400000E-9	6.511237E-5
1.500000E-9	1.370563E-4
1.600000E-9	2.381203E-4
1.700000E-9	3.477491E-4
1.800000E-9	3.957117E-4
1.900000E-9	3.905729E-4
2.000000E-9	3.271937E-4
2.100000E-9	2.038613E-4
2.200000E-9	1.010843E-4
2.300000E-9	4.113107E-5
2.400000E-9	7.710302E-5
2.500000E-9	2.072872E-4
2.600000E-9	3.957117E-4
2.700000E-9	5.104794E-4
2.800000E-9	5.789974E-4
2.900000E-9	5.139053E-4
3.000000E-9	4.488132E-4
3.100000E-9	3.837211E-4
3.200000E-9	4.488132E-4
3.300000E-9	5.601549E-4
3.400000E-9	7.108945E-4
3.500000E-9	8.359399E-4
3.600000E-9	8.821895E-4
3.700000E-9	7.896902E-4
3.800000E-9	6.937650E-4
3.900000E-9	6.098305E-4
4.000000E-9	5.395995E-4
4.100000E-9	4.727945E-4
4.200000E-9	3.974247E-4
4.300000E-9	3.323326E-4
4.400000E-9	3.049254E-4
4.500000E-9	3.152031E-4
4.600000E-9	4.179801E-4
4.700000E-9	5.173312E-4
4.800000E-9	6.029787E-4
4.900000E-9	5.841362E-4
5.000000E-9	4.625168E-4
5.100000E-9	2.124261E-4
5.200000E-9	-7.192364E-5
5.300000E-9	-2.415057E-4
5.400000E-9	-2.192373E-4
5.500000E-9	-6.831536E-6
5.600000E-9	3.100642E-4
5.700000E-9	6.303859E-4
5.800000E-9	8.582082E-4
5.900000E-9	9.609852E-4
6.000000E-9	9.061708E-4
6.100000E-9	7.006168E-4
6.200000E-9	4.385355E-4
6.300000E-9	2.398333E-4
6.400000E-9	1.576117E-4
6.500000E-9	2.432592E-4
6.600000E-9	4.419614E-4
6.700000E-9	6.817744E-4
6.800000E-9	8.890413E-4
6.900000E-9	9.524205E-4
7.000000E-9	8.804766E-4
7.100000E-9	7.177463E-4
7.200000E-9	5.361736E-4
7.300000E-9	4.556650E-4
7.400000E-9	4.436743E-4
7.500000E-9	5.293218E-4
7.600000E-9	5.618679E-4
7.700000E-9	5.670067E-4
7.800000E-9	4.933499E-4
7.900000E-9	3.905729E-4
8.000000E-9	2.586757E-4
8.100000E-9	1.421951E-4
8.200000E-9	5.483467E-5
8.300000E-9	1.714976E-5
8.400000E-9	5.654762E-5
8.500000E-9	1.045102E-4
8.600000E-9	2.535369E-4
8.700000E-9	3.563139E-4
8.800000E-9	4.539520E-4
8.900000E-9	4.967758E-4
9.000000E-9	4.488132E-4
9.100000E-9	3.785822E-4
9.200000E-9	2.586757E-4
9.300000E-9	1.661764E-4
9.400000E-9	1.404822E-4
9.500000E-9	1.541858E-4
9.600000E-9	1.850189E-4
9.700000E-9	2.758052E-4
9.800000E-9	4.265448E-4
9.900000E-9	5.515902E-4
1.000000E-8	5.978398E-4
1.010000E-8	5.190441E-4
1.020000E-8	3.391844E-4
1.030000E-8	1.730282E-4
1.040000E-8	5.483467E-5
1.050000E-8	-4.109054E-5
1.060000E-8	-8.048839E-5
1.070000E-8	-6.507184E-5
1.080000E-8	-2.224809E-5
1.090000E-8	3.256632E-5
1.100000E-8	9.423252E-5
1.110000E-8	2.175649E-4
1.120000E-8	3.323326E-4
1.130000E-8	4.539520E-4
1.140000E-8	5.498772E-4
1.150000E-8	5.824233E-4
1.160000E-8	5.635808E-4
1.170000E-8	5.002017E-4
1.180000E-8	4.351096E-4
1.190000E-8	4.128412E-4
1.200000E-8	4.128412E-4
1.210000E-8	4.385355E-4
1.220000E-8	4.642297E-4
1.230000E-8	4.419614E-4
1.240000E-8	3.751563E-4
1.250000E-8	3.408973E-4
1.260000E-8	3.323326E-4
1.270000E-8	3.717304E-4
1.280000E-8	3.888599E-4
1.290000E-8	3.340455E-4
1.300000E-8	3.014995E-4
1.310000E-8	2.860829E-4
1.320000E-8	2.997865E-4
1.330000E-8	3.186290E-4
1.340000E-8	3.871470E-4
1.350000E-8	4.333966E-4
1.360000E-8	4.659427E-4
1.370000E-8	4.556650E-4
1.380000E-8	4.453873E-4
1.390000E-8	5.310348E-4
1.400000E-8	5.824233E-4
1.410000E-8	5.841362E-4
1.420000E-8	5.584420E-4
1.430000E-8	5.258959E-4
1.440000E-8	5.173312E-4
1.450000E-8	4.847851E-4
1.460000E-8	5.207571E-4
1.470000E-8	5.413125E-4
1.480000E-8	5.498772E-4
1.490000E-8	5.258959E-4
1.500000E-8	5.173312E-4
1.510000E-8	5.190441E-4
1.520000E-8	5.104794E-4
1.530000E-8	4.676556E-4
1.540000E-8	4.351096E-4
1.550000E-8	3.546009E-4
1.560000E-8	3.117772E-4
1.570000E-8	3.134901E-4
1.580000E-8	3.648786E-4
1.590000E-8	4.196930E-4
1.600000E-8	4.625168E-4
1.610000E-8	4.676556E-4
1.620000E-8	4.179801E-4
1.630000E-8	3.546009E-4
1.640000E-8	3.426103E-4
1.650000E-8	3.631657E-4
1.660000E-8	4.059894E-4
1.670000E-8	4.642297E-4
1.680000E-8	5.533031E-4
1.690000E-8	5.978398E-4
1.700000E-8	5.909880E-4
1.710000E-8	5.019146E-4
1.720000E-8	4.556650E-4
1.730000E-8	4.573779E-4
1.740000E-8	4.984887E-4
1.750000E-8	5.447384E-4
1.760000E-8	4.762204E-4
1.770000E-8	3.631657E-4
1.780000E-8	2.329815E-4
1.790000E-8	1.302045E-4
1.800000E-8	1.096491E-4
1.810000E-8	1.627505E-4
1.820000E-8	2.398333E-4
1.830000E-8	2.723793E-4
1.840000E-8	2.329815E-4
1.850000E-8	1.918707E-4
1.860000E-8	1.593246E-4
1.870000E-8	1.884448E-4
1.880000E-8	2.655275E-4
1.890000E-8	3.580268E-4
1.900000E-8	4.231189E-4
1.910000E-8	4.385355E-4
1.920000E-8	5.036276E-4
1.930000E-8	6.577931E-4
1.940000E-8	1.094595E-3
1.950000E-8	1.985329E-3
1.960000E-8	3.407078E-3
1.970000E-8	5.299888E-3
1.980000E-8	7.548991E-3
1.990000E-8	1.007045E-2
2.000000E-8	1.267585E-2
2.010000E-8	1.519903E-2
2.020000E-8	1.742929E-2
2.030000E-8	1.919191E-2
2.040000E-8	2.031732E-2
2.050000E-8	2.063764E-2
2.060000E-8	2.007408E-2
2.070000E-8	1.871057E-2
2.080000E-8	1.678008E-2
2.090000E-8	1.470398E-2
2.100000E-8	1.289340E-2
2.110000E-8	1.172859E-2
2.120000E-8	1.126267E-2
2.130000E-8	1.135859E-2
2.140000E-8	1.182965E-2
2.150000E-8	1.245659E-2
2.160000E-8	1.302529E-2
2.170000E-8	1.339015E-2
2.180000E-8	1.339015E-2
2.190000E-8	1.300131E-2
2.200000E-8	1.218766E-2
2.210000E-8	1.100915E-2
2.220000E-8	9.683327E-3
2.230000E-8	8.402040E-3
2.240000E-8	7.439362E-3
2.250000E-8	6.904922E-3
2.260000E-8	6.916913E-3
2.270000E-8	7.316030E-3
2.280000E-8	7.977229E-3
2.290000E-8	8.691529E-3
2.300000E-8	9.244812E-3
2.310000E-8	9.532587E-3
2.320000E-8	9.489764E-3
2.330000E-8	9.028980E-3
2.340000E-8	8.210190E-3
2.350000E-8	7.221818E-3
2.360000E-8	6.250575E-3
2.370000E-8	5.478035E-3
2.380000E-8	5.082343E-3
2.390000E-8	5.084056E-3
2.400000E-8	5.440350E-3
2.410000E-8	6.082706E-3
2.420000E-8	6.844969E-3
2.430000E-8	7.494177E-3
2.440000E-8	7.906998E-3
2.450000E-8	7.932692E-3
2.460000E-8	7.513019E-3
2.470000E-8	6.716497E-3
2.480000E-8	5.717848E-3
2.490000E-8	4.722624E-3
2.500000E-8	3.970638E-3
2.510000E-8	3.491012E-3
2.520000E-8	3.393374E-3
2.530000E-8	3.682863E-3
2.540000E-8	4.249849E-3
2.550000E-8	5.044658E-3
2.560000E-8	5.860022E-3
2.570000E-8	6.543489E-3
2.580000E-8	6.939181E-3
2.590000E-8	6.874089E-3
2.600000E-8	6.267705E-3
2.610000E-8	5.222805E-3
2.620000E-8	4.016888E-3
2.630000E-8	2.920600E-3
2.640000E-8	2.117227E-3
2.650000E-8	1.793479E-3
2.660000E-8	1.961348E-3
2.670000E-8	2.555742E-3
2.680000E-8	3.412217E-3
2.690000E-8	4.362904E-3
2.700000E-8	5.140583E-3
2.710000E-8	5.609932E-3
2.720000E-8	5.603080E-3
2.730000E-8	5.188546E-3
2.740000E-8	4.424570E-3
2.750000E-8	3.475596E-3
2.760000E-8	2.540325E-3
2.770000E-8	1.808896E-3
2.780000E-8	1.404639E-3
2.790000E-8	1.456028E-3
2.800000E-8	1.920237E-3
2.810000E-8	2.713333E-3
2.820000E-8	3.607493E-3
2.830000E-8	4.392024E-3
2.840000E-8	4.881928E-3
2.850000E-8	4.931603E-3
2.860000E-8	4.577023E-3
2.870000E-8	3.867861E-3
2.880000E-8	2.959998E-3
2.890000E-8	2.017875E-3
2.900000E-8	1.229918E-3
2.910000E-8	7.228852E-4
2.920000E-8	6.423765E-4
2.930000E-8	1.022651E-3
2.940000E-8	1.726674E-3
2.950000E-8	2.624260E-3
2.960000E-8	3.429346E-3
2.970000E-8	3.938092E-3
2.980000E-8	4.003185E-3
2.990000E-8	3.648604E-3
3.000000E-8	2.989118E-3
3.010000E-8	2.237133E-3
3.020000E-8	1.519407E-3
3.030000E-8	9.284392E-4
3.040000E-8	5.687197E-4
3.050000E-8	4.642297E-4
3.060000E-8	5.550161E-4
3.070000E-8	9.181615E-4
3.080000E-8	1.515981E-3
3.090000E-8	2.266253E-3
3.100000E-8	3.013099E-3
3.110000E-8	3.513281E-3
3.120000E-8	3.609206E-3
3.130000E-8	3.215228E-3
3.140000E-8	2.377595E-3
3.150000E-8	1.317279E-3
3.160000E-8	3.700175E-4
3.170000E-8	-2.791906E-4
3.180000E-8	-4.933094E-4
3.190000E-8	-2.569222E-4
3.200000E-8	3.306196E-4
3.210000E-8	1.110012E-3
3.220000E-8	1.933941E-3
3.230000E-8	2.598565E-3
3.240000E-8	3.047358E-3
3.250000E-8	3.211802E-3
3.260000E-8	3.061062E-3
3.270000E-8	2.554029E-3
3.280000E-8	1.764359E-3
3.290000E-8	8.736248E-4
3.300000E-8	4.798287E-5
3.310000E-8	-4.881705E-4
3.320000E-8	-5.823828E-4
3.330000E-8	-1.010438E-4
3.340000E-8	7.845514E-4
3.350000E-8	1.873988E-3
3.360000E-8	2.829814E-3
3.370000E-8	3.437911E-3
3.380000E-8	3.542401E-3
3.390000E-8	3.180969E-3
3.400000E-8	2.490650E-3
3.410000E-8	1.627323E-3
3.420000E-8	9.027449E-4
3.430000E-8	4.214060E-4
3.440000E-8	2.552498E-4
3.450000E-8	4.025635E-4
3.460000E-8	8.462176E-4
3.470000E-8	1.507416E-3
3.480000E-8	2.213152E-3
3.490000E-8	2.867499E-3
3.500000E-8	3.302588E-3
3.510000E-8	3.449902E-3
3.520000E-8	3.184394E-3
3.530000E-8	2.596853E-3
3.540000E-8	1.779775E-3
3.550000E-8	9.489946E-4
3.560000E-8	2.055743E-4
3.570000E-8	-2.603481E-4
3.580000E-8	-3.631251E-4
3.590000E-8	-9.076609E-5
3.600000E-8	5.207571E-4
3.610000E-8	1.339547E-3
3.620000E-8	2.172041E-3
3.630000E-8	2.786990E-3
3.640000E-8	3.026803E-3
3.650000E-8	2.841804E-3
3.660000E-8	2.267966E-3
3.670000E-8	1.476583E-3
3.680000E-8	6.714967E-4
3.690000E-8	4.284402E-5
3.700000E-8	-3.168755E-4
3.710000E-8	-3.477086E-4
3.720000E-8	-7.706249E-5
3.730000E-8	4.111283E-4
3.740000E-8	1.050059E-3
3.750000E-8	1.690702E-3
3.760000E-8	2.285096E-3
3.770000E-8	2.718472E-3
3.780000E-8	2.812684E-3
3.790000E-8	2.610556E-3
3.800000E-8	2.101810E-3
3.810000E-8	1.394362E-3
3.820000E-8	6.406636E-4
3.830000E-8	3.427927E-5
3.840000E-8	-3.511345E-4
3.850000E-8	-3.939582E-4
3.860000E-8	-1.113215E-4
3.870000E-8	3.957117E-4
3.880000E-8	1.104873E-3
3.890000E-8	1.822599E-3
3.900000E-8	2.321068E-3
3.910000E-8	2.512918E-3
3.920000E-8	2.297086E-3
3.930000E-8	1.781488E-3
3.940000E-8	1.113438E-3
3.950000E-8	4.745074E-4
3.960000E-8	6.682532E-5
3.970000E-8	-3.405636E-6
3.980000E-8	2.432592E-4
3.990000E-8	7.040427E-4
4.000000E-8	1.231631E-3
4.010000E-8	1.663295E-3
4.020000E-8	1.954496E-3
4.030000E-8	2.079542E-3
4.040000E-8	2.077829E-3
4.050000E-8	1.909960E-3
4.060000E-8	1.569083E-3
4.070000E-8	1.120290E-3
4.080000E-8	6.012657E-4
4.090000E-8	1.935836E-4
4.100000E-8	3.446165E-6
4.110000E-8	3.256632E-5
4.120000E-8	3.374714E-4
4.130000E-8	7.554312E-4
4.140000E-8	1.180243E-3
4.150000E-8	1.531398E-3
4.160000E-8	1.779775E-3
4.170000E-8	1.927089E-3
4.180000E-8	1.909960E-3
4.190000E-8	1.742090E-3
4.200000E-8	1.339547E-3
4.210000E-8	7.862643E-4
4.220000E-8	2.038613E-4
4.230000E-8	-2.723388E-4
4.240000E-8	-5.104389E-4
4.250000E-8	-4.265043E-4
4.260000E-8	-1.539629E-5
4.270000E-8	5.772844E-4
4.280000E-8	1.236770E-3
4.290000E-8	1.796905E-3
4.300000E-8	2.134356E-3
4.310000E-8	2.163476E-3
4.320000E-8	1.918524E-3
4.330000E-8	1.459454E-3
4.340000E-8	9.592723E-4
4.350000E-8	5.036276E-4
4.360000E-8	1.696023E-4
4.370000E-8	4.113107E-5
4.380000E-8	1.456210E-4
4.390000E-8	4.299707E-4
4.400000E-8	8.205233E-4
4.410000E-8	1.330982E-3
4.420000E-8	1.848293E-3
4.430000E-8	2.309077E-3
4.440000E-8	2.509492E-3
4.450000E-8	2.326206E-3
4.460000E-8	1.850006E-3
4.470000E-8	1.149410E-3
4.480000E-8	4.145542E-4
4.490000E-8	-1.627100E-4
4.500000E-8	-3.871064E-4
4.510000E-8	-2.415057E-4
4.520000E-8	2.261297E-4
4.530000E-8	8.701989E-4
4.540000E-8	1.529685E-3
4.550000E-8	2.048709E-3
4.560000E-8	2.358752E-3
4.570000E-8	2.434122E-3
4.580000E-8	2.333058E-3
4.590000E-8	2.009311E-3
4.600000E-8	1.577647E-3
4.610000E-8	1.096308E-3
4.620000E-8	6.475154E-4
4.630000E-8	4.008506E-4
4.640000E-8	2.895088E-4
4.650000E-8	4.059894E-4
4.660000E-8	6.783485E-4
4.670000E-8	1.003809E-3
4.680000E-8	1.317279E-3
4.690000E-8	1.586212E-3
4.700000E-8	1.743803E-3
4.710000E-8	1.781488E-3
4.720000E-8	1.668434E-3
4.730000E-8	1.394362E-3
4.740000E-8	9.661241E-4
4.750000E-8	4.950628E-4
4.760000E-8	1.113620E-4
4.770000E-8	-3.937759E-5
4.780000E-8	8.395482E-5
4.790000E-8	4.847851E-4
4.800000E-8	1.104873E-3
4.810000E-8	1.726674E-3
4.820000E-8	2.149773E-3
4.830000E-8	2.303938E-3
4.840000E-8	2.148060E-3
4.850000E-8	1.767785E-3
4.860000E-8	1.272742E-3
4.870000E-8	8.821895E-4
4.880000E-8	6.166823E-4
4.890000E-8	5.070535E-4
4.900000E-8	5.378866E-4
4.910000E-8	6.475154E-4
4.920000E-8	8.616341E-4
4.930000E-8	1.128854E-3
4.940000E-8	1.438898E-3
4.950000E-8	1.819173E-3
4.960000E-8	2.158337E-3
4.970000E-8	2.358752E-3
4.980000E-8	2.329632E-3
4.990000E-8	2.132643E-3
5.000000E-8	1.750655E-3
5.010000E-8	1.288159E-3
5.020000E-8	7.811255E-4
5.030000E-8	3.597398E-4
5.040000E-8	7.710302E-5
5.050000E-8	2.742747E-5
5.060000E-8	1.952966E-4
5.070000E-8	5.070535E-4
5.080000E-8	8.564953E-4
5.090000E-8	1.169965E-3
5.100000E-8	1.366954E-3
5.110000E-8	1.409778E-3
5.120000E-8	1.260752E-3
5.130000E-8	1.056910E-3
5.140000E-8	8.359399E-4
5.150000E-8	6.235341E-4
5.160000E-8	4.351096E-4
5.170000E-8	3.289067E-4
5.180000E-8	3.237678E-4
5.190000E-8	4.984887E-4
5.200000E-8	7.468665E-4
5.210000E-8	1.115151E-3
5.220000E-8	1.461167E-3
5.230000E-8	1.692415E-3
5.240000E-8	1.646165E-3
5.250000E-8	1.360103E-3
5.260000E-8	9.164485E-4
5.270000E-8	3.734434E-4
5.280000E-8	-9.247904E-5
5.290000E-8	-3.340050E-4
5.300000E-8	-3.203014E-4
5.310000E-8	-1.710924E-5
5.320000E-8	4.590909E-4
5.330000E-8	1.032929E-3
5.340000E-8	1.587925E-3
5.350000E-8	1.995607E-3
5.360000E-8	2.192596E-3
5.370000E-8	2.175467E-3
5.380000E-8	2.023014E-3
5.390000E-8	1.694128E-3
5.400000E-8	1.310427E-3
5.410000E-8	9.866795E-4
5.420000E-8	7.383017E-4
5.430000E-8	5.755715E-4
5.440000E-8	5.909880E-4
5.450000E-8	6.920521E-4
5.460000E-8	8.445046E-4
5.470000E-8	1.031216E-3
5.480000E-8	1.192234E-3
5.490000E-8	1.334408E-3
5.500000E-8	1.402926E-3
5.510000E-8	1.390936E-3
5.520000E-8	1.247048E-3
5.530000E-8	9.866795E-4
5.540000E-8	7.194593E-4
5.550000E-8	4.231189E-4
5.560000E-8	2.004354E-4
5.570000E-8	8.738072E-5
5.580000E-8	1.439081E-4
5.590000E-8	3.443232E-4
5.600000E-8	6.406636E-4
5.610000E-8	1.017513E-3
5.620000E-8	1.384084E-3
5.630000E-8	1.709544E-3
5.640000E-8	1.848293E-3
5.650000E-8	1.826025E-3
5.660000E-8	1.646165E-3
5.670000E-8	1.365241E-3
5.680000E-8	1.070614E-3
5.690000E-8	7.639960E-4
5.700000E-8	5.807103E-4
5.710000E-8	5.584420E-4
5.720000E-8	7.023298E-4
5.730000E-8	9.524205E-4
5.740000E-8	1.197372E-3
5.750000E-8	1.411491E-3
5.760000E-8	1.548527E-3
5.770000E-8	1.593064E-3
5.780000E-8	1.565657E-3
5.790000E-8	1.466306E-3
5.800000E-8	1.380658E-3
5.810000E-8	1.336121E-3
5.820000E-8	1.265890E-3
5.830000E-8	1.209363E-3
5.840000E-8	1.132280E-3
5.850000E-8	1.046633E-3
5.860000E-8	1.060336E-3
5.870000E-8	1.145984E-3
5.880000E-8	1.318992E-3
5.890000E-8	1.497139E-3
5.900000E-8	1.615332E-3
5.910000E-8	1.617045E-3
5.920000E-8	1.490287E-3
5.930000E-8	1.214502E-3
5.940000E-8	9.044579E-4
5.950000E-8	6.149693E-4
5.960000E-8	4.077024E-4
5.970000E-8	3.203419E-4
5.980000E-8	4.008506E-4
5.990000E-8	5.687197E-4
6.000000E-8	8.736248E-4
6.010000E-8	1.229918E-3
6.020000E-8	1.557092E-3
6.030000E-8	1.752368E-3
6.040000E-8	1.793479E-3
6.050000E-8	1.673572E-3
6.060000E-8	1.406352E-3
6.070000E-8	1.084318E-3
6.080000E-8	8.068197E-4
6.090000E-8	6.423765E-4
6.100000E-8	6.166823E-4
6.110000E-8	6.612190E-4
6.120000E-8	7.931161E-4
6.130000E-8	9.901054E-4
6.140000E-8	1.205937E-3
6.150000E-8	1.423482E-3
6.160000E-8	1.632462E-3
6.170000E-8	1.826025E-3
6.180000E-8	1.800331E-3
6.190000E-8	1.649591E-3
6.200000E-8	1.366954E-3
6.210000E-8	1.014087E-3
6.220000E-8	6.800614E-4
6.230000E-8	4.282578E-4
6.240000E-8	3.323326E-4
6.250000E-8	3.802952E-4
6.260000E-8	5.498772E-4
6.270000E-8	7.537183E-4
6.280000E-8	9.335780E-4
6.290000E-8	1.005522E-3
6.300000E-8	1.058623E-3
6.310000E-8	1.108299E-3
6.320000E-8	1.154549E-3
6.330000E-8	1.238483E-3
6.340000E-8	1.322418E-3
6.350000E-8	1.342973E-3
6.360000E-8	1.313853E-3
6.370000E-8	1.173391E-3
6.380000E-8	9.421428E-4
6.390000E-8	6.971909E-4
6.400000E-8	5.618679E-4
6.410000E-8	5.738585E-4
6.420000E-8	7.365888E-4
6.430000E-8	9.541334E-4
6.440000E-8	1.185382E-3
6.450000E-8	1.276168E-3
6.460000E-8	1.298436E-3
6.470000E-8	1.233344E-3
6.480000E-8	1.070614E-3
6.490000E-8	8.993190E-4
6.500000E-8	7.982550E-4
6.510000E-8	7.914032E-4
6.520000E-8	8.188104E-4
6.530000E-8	8.890413E-4
6.540000E-8	9.301521E-4
6.550000E-8	9.986701E-4
6.560000E-8	1.115151E-3
6.570000E-8	1.325844E-3
6.580000E-8	1.531398E-3
6.590000E-8	1.688989E-3
6.600000E-8	1.675285E-3
6.610000E-8	1.457741E-3
6.620000E-8	1.079179E-3
6.630000E-8	7.314499E-4
6.640000E-8	4.847851E-4
6.650000E-8	4.642297E-4
6.660000E-8	6.149693E-4
6.670000E-8	9.164485E-4
6.680000E-8	1.216215E-3
6.690000E-8	1.449176E-3
6.700000E-8	1.572508E-3
6.710000E-8	1.666721E-3
6.720000E-8	1.712970E-3
6.730000E-8	1.714683E-3
6.740000E-8	1.661582E-3
6.750000E-8	1.603342E-3
6.760000E-8	1.444037E-3
6.770000E-8	1.205937E-3
6.780000E-8	1.000383E-3
6.790000E-8	7.725607E-4
6.800000E-8	6.714967E-4
6.810000E-8	6.766355E-4
6.820000E-8	7.502924E-4
6.830000E-8	8.856154E-4
6.840000E-8	1.098021E-3
6.850000E-8	1.295011E-3
6.860000E-8	1.404639E-3
6.870000E-8	1.440611E-3
6.880000E-8	1.337834E-3
6.890000E-8	1.241909E-3
6.900000E-8	1.113438E-3
6.910000E-8	9.918183E-4
6.920000E-8	8.599212E-4
6.930000E-8	7.297370E-4
6.940000E-8	7.108945E-4
6.950000E-8	7.057557E-4
6.960000E-8	7.383017E-4
6.970000E-8	8.530694E-4
6.980000E-8	9.815406E-4
6.990000E-8	1.067188E-3
7.000000E-8	1.132280E-3
7.010000E-8	1.096308E-3
7.020000E-8	1.026077E-3
7.030000E-8	1.031216E-3
7.040000E-8	1.065475E-3
7.050000E-8	1.166539E-3
7.060000E-8	1.296723E-3
7.070000E-8	1.370380E-3
7.080000E-8	1.312140E-3
7.090000E-8	1.106586E-3
7.100000E-8	8.513564E-4
7.110000E-8	7.023298E-4
7.120000E-8	6.800614E-4
7.130000E-8	7.948291E-4
7.140000E-8	9.301521E-4
7.150000E-8	9.935313E-4
7.160000E-8	9.404298E-4
7.170000E-8	8.119586E-4
7.180000E-8	7.280240E-4
7.190000E-8	7.520053E-4
7.200000E-8	9.404298E-4
7.210000E-8	1.188808E-3
7.220000E-8	1.394362E-3
7.230000E-8	1.469731E-3
7.240000E-8	1.384084E-3
7.250000E-8	1.159687E-3
7.260000E-8	9.181615E-4
7.270000E-8	7.622830E-4
7.280000E-8	7.211722E-4
7.290000E-8	8.016809E-4
7.300000E-8	9.815406E-4
7.310000E-8	1.142558E-3
7.320000E-8	1.223067E-3
7.330000E-8	1.277881E-3
7.340000E-8	1.269316E-3
7.350000E-8	1.183669E-3
7.360000E-8	1.091169E-3
7.370000E-8	1.002096E-3
7.380000E-8	8.941802E-4
7.390000E-8	8.804766E-4
7.400000E-8	8.993190E-4
7.410000E-8	9.883924E-4
7.420000E-8	1.070614E-3
7.430000E-8	1.092882E-3
7.440000E-8	1.043207E-3
7.450000E-8	9.370039E-4
7.460000E-8	8.085327E-4
7.470000E-8	7.400147E-4
7.480000E-8	6.800614E-4
7.490000E-8	7.417276E-4
7.500000E-8	8.667730E-4
7.510000E-8	1.029503E-3
7.520000E-8	1.156262E-3
7.530000E-8	1.195659E-3
7.540000E-8	1.123715E-3
7.550000E-8	9.609852E-4
7.560000E-8	7.657089E-4
7.570000E-8	6.406636E-4
7.580000E-8	6.286729E-4
7.590000E-8	7.194593E-4
7.600000E-8	8.667730E-4
7.610000E-8	9.969572E-4
7.620000E-8	1.055197E-3
7.630000E-8	1.098021E-3
7.640000E-8	1.115151E-3
7.650000E-8	1.075753E-3
7.660000E-8	9.935313E-4
7.670000E-8	9.130226E-4
7.680000E-8	8.256622E-4
7.690000E-8	8.222363E-4
7.700000E-8	9.078838E-4
7.710000E-8	1.017513E-3
7.720000E-8	1.127141E-3
7.730000E-8	1.181956E-3
7.740000E-8	1.139132E-3
7.750000E-8	1.043207E-3
7.760000E-8	9.095967E-4
7.770000E-8	8.445046E-4
7.780000E-8	8.821895E-4
7.790000E-8	9.489946E-4
7.800000E-8	1.010661E-3
7.810000E-8	1.062049E-3
7.820000E-8	1.044920E-3
7.830000E-8	1.051772E-3
7.840000E-8	1.123715E-3
7.850000E-8	1.185382E-3
