Study Name	Tungsten_Calibration
Sample Name	2024-10-02
Run Name	spot01
Operator	Elena
Date	10/2/2024
Time	9:52
Sign	POS
Grating Spacing	03.40um
Channel	3
Number Traces	10000
Files in Batch	1
Batch Number	1
dt	100.000001E-12
time stamp (ms)	9:52:54 AM
	
Time	Amplitude
0.000000E+0	-2.774860E-4
1.000000E-10	-2.380882E-4
2.000000E-10	-1.918385E-4
3.000000E-10	-1.644313E-4
4.000000E-10	-1.610054E-4
5.000000E-10	-1.815608E-4
6.000000E-10	-2.021162E-4
7.000000E-10	-2.158198E-4
8.000000E-10	-2.278105E-4
9.000000E-10	-2.517918E-4
1.000000E-9	-3.100321E-4
1.100000E-9	-4.230868E-4
1.200000E-9	-5.584099E-4
1.300000E-9	-6.663257E-4
1.400000E-9	-6.885941E-4
1.500000E-9	-6.286408E-4
1.600000E-9	-5.344286E-4
1.700000E-9	-4.659105E-4
1.800000E-9	-4.385033E-4
1.900000E-9	-4.727623E-4
2.000000E-9	-5.481322E-4
2.100000E-9	-6.320667E-4
2.200000E-9	-6.663257E-4
2.300000E-9	-6.389185E-4
2.400000E-9	-5.464192E-4
2.500000E-9	-4.350774E-4
2.600000E-9	-3.323004E-4
2.700000E-9	-2.843378E-4
2.800000E-9	-2.980414E-4
2.900000E-9	-3.528558E-4
3.000000E-9	-4.128091E-4
3.100000E-9	-4.333645E-4
3.200000E-9	-3.682724E-4
3.300000E-9	-2.483659E-4
3.400000E-9	-1.301723E-4
3.500000E-9	-5.137664E-5
3.600000E-9	-4.109894E-5
3.700000E-9	-1.010522E-4
3.800000E-9	-1.610054E-4
3.900000E-9	-2.106810E-4
4.000000E-9	-2.552177E-4
4.100000E-9	-2.894767E-4
4.200000E-9	-3.305875E-4
4.300000E-9	-3.956796E-4
4.400000E-9	-4.624846E-4
4.500000E-9	-5.104473E-4
4.600000E-9	-4.761882E-4
4.700000E-9	-3.991055E-4
4.800000E-9	-3.134580E-4
4.900000E-9	-2.911896E-4
5.000000E-9	-3.340134E-4
5.100000E-9	-4.504940E-4
5.200000E-9	-5.875300E-4
5.300000E-9	-6.663257E-4
5.400000E-9	-6.235020E-4
5.500000E-9	-4.847530E-4
5.600000E-9	-2.740601E-4
5.700000E-9	-8.049679E-5
5.800000E-9	4.454857E-5
5.900000E-9	9.251117E-5
6.000000E-9	6.167807E-5
6.100000E-9	-3.767304E-5
6.200000E-9	-1.678572E-4
6.300000E-9	-2.774860E-4
6.400000E-9	-3.562817E-4
6.500000E-9	-3.751242E-4
6.600000E-9	-3.408652E-4
6.700000E-9	-2.723472E-4
6.800000E-9	-1.798479E-4
6.900000E-9	-9.933924E-5
7.000000E-9	-4.966369E-5
7.100000E-9	-5.651549E-5
7.200000E-9	-8.563564E-5
7.300000E-9	-1.010522E-4
7.400000E-9	-1.370241E-4
7.500000E-9	-1.421630E-4
7.600000E-9	-1.986903E-4
7.700000E-9	-2.517918E-4
7.800000E-9	-3.254486E-4
7.900000E-9	-3.682724E-4
8.000000E-9	-4.008184E-4
8.100000E-9	-4.059573E-4
8.200000E-9	-4.265127E-4
8.300000E-9	-4.470681E-4
8.400000E-9	-4.539199E-4
8.500000E-9	-5.053084E-4
8.600000E-9	-5.018825E-4
8.700000E-9	-5.310027E-4
8.800000E-9	-5.361415E-4
8.900000E-9	-5.395674E-4
9.000000E-9	-5.584099E-4
9.100000E-9	-5.566969E-4
9.200000E-9	-5.549840E-4
9.300000E-9	-5.447063E-4
9.400000E-9	-5.412804E-4
9.500000E-9	-5.686876E-4
9.600000E-9	-5.875300E-4
9.700000E-9	-5.978077E-4
9.800000E-9	-5.686876E-4
9.900000E-9	-5.464192E-4
1.000000E-8	-5.310027E-4
1.010000E-8	-5.652617E-4
1.020000E-8	-6.526221E-4
1.030000E-8	-7.194272E-4
1.040000E-8	-7.656768E-4
1.050000E-8	-7.965099E-4
1.060000E-8	-7.999358E-4
1.070000E-8	-7.862322E-4
1.080000E-8	-7.365567E-4
1.090000E-8	-6.543351E-4
1.100000E-8	-4.967436E-4
1.110000E-8	-2.809119E-4
1.120000E-8	-1.010522E-4
1.130000E-8	1.724815E-6
1.140000E-8	3.437765E-6
1.150000E-8	-1.455889E-4
1.160000E-8	-3.802630E-4
1.170000E-8	-6.115113E-4
1.180000E-8	-7.742416E-4
1.190000E-8	-8.102135E-4
1.200000E-8	-7.742416E-4
1.210000E-8	-6.971588E-4
1.220000E-8	-6.320667E-4
1.230000E-8	-5.978077E-4
1.240000E-8	-5.635487E-4
1.250000E-8	-5.344286E-4
1.260000E-8	-5.087343E-4
1.270000E-8	-4.659105E-4
1.280000E-8	-4.522069E-4
1.290000E-8	-4.779012E-4
1.300000E-8	-5.207250E-4
1.310000E-8	-5.652617E-4
1.320000E-8	-5.772523E-4
1.330000E-8	-5.789653E-4
1.340000E-8	-5.207250E-4
1.350000E-8	-4.676235E-4
1.360000E-8	-4.213738E-4
1.370000E-8	-4.025314E-4
1.380000E-8	-4.093832E-4
1.390000E-8	-3.854019E-4
1.400000E-8	-3.905407E-4
1.410000E-8	-3.905407E-4
1.420000E-8	-3.682724E-4
1.430000E-8	-3.237357E-4
1.440000E-8	-2.569306E-4
1.450000E-8	-2.004033E-4
1.460000E-8	-1.644313E-4
1.470000E-8	-1.918385E-4
1.480000E-8	-2.877637E-4
1.490000E-8	-4.196609E-4
1.500000E-8	-5.172991E-4
1.510000E-8	-5.464192E-4
1.520000E-8	-4.984566E-4
1.530000E-8	-3.939666E-4
1.540000E-8	-2.894767E-4
1.550000E-8	-2.586436E-4
1.560000E-8	-2.809119E-4
1.570000E-8	-3.408652E-4
1.580000E-8	-3.922537E-4
1.590000E-8	-4.128091E-4
1.600000E-8	-4.093832E-4
1.610000E-8	-3.802630E-4
1.620000E-8	-3.768371E-4
1.630000E-8	-3.785501E-4
1.640000E-8	-3.528558E-4
1.650000E-8	-3.048932E-4
1.660000E-8	-2.398011E-4
1.670000E-8	-2.141069E-4
1.680000E-8	-2.123939E-4
1.690000E-8	-2.226716E-4
1.700000E-8	-2.466529E-4
1.710000E-8	-2.466529E-4
1.720000E-8	-1.764220E-4
1.730000E-8	-9.933924E-5
1.740000E-8	-3.253419E-5
1.750000E-8	-3.767304E-5
1.760000E-8	-1.712831E-4
1.770000E-8	-3.734112E-4
1.780000E-8	-5.858171E-4
1.790000E-8	-7.142883E-4
1.800000E-8	-7.314178E-4
1.810000E-8	-6.372056E-4
1.820000E-8	-4.967436E-4
1.830000E-8	-3.528558E-4
1.840000E-8	-2.723472E-4
1.850000E-8	-2.346623E-4
1.860000E-8	-2.586436E-4
1.870000E-8	-2.774860E-4
1.880000E-8	-2.843378E-4
1.890000E-8	-2.997544E-4
1.900000E-8	-3.151709E-4
1.910000E-8	-3.631335E-4
1.920000E-8	-3.973925E-4
1.930000E-8	-4.590587E-4
1.940000E-8	-4.898918E-4
1.950000E-8	-4.727623E-4
1.960000E-8	-4.196609E-4
1.970000E-8	-3.597076E-4
1.980000E-8	-2.226716E-4
1.990000E-8	1.147795E-4
2.000000E-8	8.102372E-4
2.010000E-8	1.906525E-3
2.020000E-8	3.336839E-3
2.030000E-8	4.940160E-3
2.040000E-8	6.471537E-3
2.050000E-8	7.674028E-3
2.060000E-8	8.443143E-3
2.070000E-8	8.746335E-3
2.080000E-8	8.585318E-3
2.090000E-8	8.054303E-3
2.100000E-8	7.223522E-3
2.110000E-8	6.236863E-3
2.120000E-8	5.205667E-3
2.130000E-8	4.278961E-3
2.140000E-8	3.641744E-3
2.150000E-8	3.357394E-3
2.160000E-8	3.460171E-3
2.170000E-8	3.854149E-3
2.180000E-8	4.407432E-3
2.190000E-8	4.974419E-3
2.200000E-8	5.435202E-3
2.210000E-8	5.645895E-3
2.220000E-8	5.594507E-3
2.230000E-8	5.190251E-3
2.240000E-8	4.534191E-3
2.250000E-8	3.687993E-3
2.260000E-8	2.840083E-3
2.270000E-8	2.139486E-3
2.280000E-8	1.719814E-3
2.290000E-8	1.630740E-3
2.300000E-8	1.841433E-3
2.310000E-8	2.295365E-3
2.320000E-8	2.888046E-3
2.330000E-8	3.448180E-3
2.340000E-8	3.871279E-3
2.350000E-8	4.109379E-3
2.360000E-8	4.090537E-3
2.370000E-8	3.807900E-3
2.380000E-8	3.307718E-3
2.390000E-8	2.658510E-3
2.400000E-8	1.987034E-3
2.410000E-8	1.473149E-3
2.420000E-8	1.233336E-3
2.430000E-8	1.320696E-3
2.440000E-8	1.688981E-3
2.450000E-8	2.247402E-3
2.460000E-8	2.816102E-3
2.470000E-8	3.256330E-3
2.480000E-8	3.448180E-3
2.490000E-8	3.359107E-3
2.500000E-8	3.030221E-3
2.510000E-8	2.463234E-3
2.520000E-8	1.776341E-3
2.530000E-8	1.087735E-3
2.540000E-8	5.258875E-4
2.550000E-8	2.569544E-4
2.560000E-8	3.203335E-4
2.570000E-8	7.468581E-4
2.580000E-8	1.423473E-3
2.590000E-8	2.142912E-3
2.600000E-8	2.718464E-3
2.610000E-8	3.004526E-3
2.620000E-8	2.977119E-3
2.630000E-8	2.601983E-3
2.640000E-8	1.976756E-3
2.650000E-8	1.216206E-3
2.660000E-8	4.693602E-4
2.670000E-8	-1.181817E-4
2.680000E-8	-4.350774E-4
2.690000E-8	-4.093832E-4
2.700000E-8	-5.137664E-5
2.710000E-8	6.063962E-4
2.720000E-8	1.363520E-3
2.730000E-8	2.101802E-3
2.740000E-8	2.613974E-3
2.750000E-8	2.822954E-3
2.760000E-8	2.665362E-3
2.770000E-8	2.199440E-3
2.780000E-8	1.493704E-3
2.790000E-8	7.794041E-4
2.800000E-8	1.815846E-4
2.810000E-8	-1.421630E-4
2.820000E-8	-1.781349E-4
2.830000E-8	7.366872E-5
2.840000E-8	5.447300E-4
2.850000E-8	1.099726E-3
2.860000E-8	1.647870E-3
2.870000E-8	2.050413E-3
2.880000E-8	2.221708E-3
2.890000E-8	2.110366E-3
2.900000E-8	1.695832E-3
2.910000E-8	1.043198E-3
2.920000E-8	3.100558E-4
2.930000E-8	-3.237357E-4
2.940000E-8	-7.091495E-4
2.950000E-8	-7.451214E-4
2.960000E-8	-4.367904E-4
2.970000E-8	1.421867E-4
2.980000E-8	8.050984E-4
2.990000E-8	1.426899E-3
3.000000E-8	1.911664E-3
3.010000E-8	2.173745E-3
3.020000E-8	2.184023E-3
3.030000E-8	1.892822E-3
3.040000E-8	1.385788E-3
3.050000E-8	7.451451E-4
3.060000E-8	4.283562E-5
3.070000E-8	-5.224379E-4
3.080000E-8	-8.222042E-4
3.090000E-8	-7.365567E-4
3.100000E-8	-3.066062E-4
3.110000E-8	3.545925E-4
3.120000E-8	1.039773E-3
3.130000E-8	1.570787E-3
3.140000E-8	1.810600E-3
3.150000E-8	1.723240E-3
3.160000E-8	1.406344E-3
3.170000E-8	9.095883E-4
3.180000E-8	3.357501E-4
3.190000E-8	-2.260975E-4
3.200000E-8	-6.800293E-4
3.210000E-8	-9.643790E-4
3.220000E-8	-9.541013E-4
3.230000E-8	-6.423444E-4
3.240000E-8	-6.839935E-6
3.250000E-8	7.896818E-4
3.260000E-8	1.557083E-3
3.270000E-8	2.105227E-3
3.280000E-8	2.245689E-3
3.290000E-8	1.992173E-3
3.300000E-8	1.390927E-3
3.310000E-8	5.978314E-4
3.320000E-8	-1.798479E-4
3.330000E-8	-7.228531E-4
3.340000E-8	-9.849344E-4
3.350000E-8	-9.129905E-4
3.360000E-8	-5.841041E-4
3.370000E-8	-6.850614E-5
3.380000E-8	4.916285E-4
3.390000E-8	1.002088E-3
3.400000E-8	1.382363E-3
3.410000E-8	1.562222E-3
3.420000E-8	1.577639E-3
3.430000E-8	1.377224E-3
3.440000E-8	1.005514E-3
3.450000E-8	5.053321E-4
3.460000E-8	-2.225649E-5
3.470000E-8	-4.367904E-4
3.480000E-8	-6.714646E-4
3.490000E-8	-6.183631E-4
3.500000E-8	-3.100321E-4
3.510000E-8	2.021400E-4
3.520000E-8	7.639876E-4
3.530000E-8	1.257317E-3
3.540000E-8	1.560509E-3
3.550000E-8	1.603333E-3
3.560000E-8	1.354955E-3
3.570000E-8	8.804682E-4
3.580000E-8	2.706580E-4
3.590000E-8	-3.528558E-4
3.600000E-8	-8.376207E-4
3.610000E-8	-1.075721E-3
3.620000E-8	-9.678049E-4
3.630000E-8	-5.755394E-4
3.640000E-8	2.056727E-5
3.650000E-8	6.800530E-4
3.660000E-8	1.224771E-3
3.670000E-8	1.541667E-3
3.680000E-8	1.562222E-3
3.690000E-8	1.327548E-3
3.700000E-8	8.581998E-4
3.710000E-8	2.775098E-4
3.720000E-8	-2.980414E-4
3.730000E-8	-7.810934E-4
3.740000E-8	-1.022619E-3
3.750000E-8	-1.019193E-3
3.760000E-8	-7.314178E-4
3.770000E-8	-2.380882E-4
3.780000E-8	3.340371E-4
3.790000E-8	8.736164E-4
3.800000E-8	1.260743E-3
3.810000E-8	1.401205E-3
3.820000E-8	1.276160E-3
3.830000E-8	9.215790E-4
3.840000E-8	3.888515E-4
3.850000E-8	-1.952644E-4
3.860000E-8	-7.057236E-4
3.870000E-8	-1.084286E-3
3.880000E-8	-1.152804E-3
3.890000E-8	-9.352589E-4
3.900000E-8	-4.419292E-4
3.910000E-8	1.970011E-4
3.920000E-8	7.982466E-4
3.930000E-8	1.253891E-3
3.940000E-8	1.437177E-3
3.950000E-8	1.312132E-3
3.960000E-8	9.421344E-4
3.970000E-8	4.470918E-4
3.980000E-8	-8.734859E-5
3.990000E-8	-5.515581E-4
4.000000E-8	-8.735927E-4
4.010000E-8	-9.917862E-4
4.020000E-8	-8.650279E-4
4.030000E-8	-5.207250E-4
4.040000E-8	-8.552885E-6
4.050000E-8	5.738501E-4
4.060000E-8	1.079170E-3
4.070000E-8	1.380650E-3
4.080000E-8	1.418335E-3
4.090000E-8	1.185373E-3
4.100000E-8	7.811171E-4
4.110000E-8	2.483896E-4
4.120000E-8	-2.552177E-4
4.130000E-8	-6.731775E-4
4.140000E-8	-9.129905E-4
4.150000E-8	-9.352589E-4
4.160000E-8	-6.834552E-4
4.170000E-8	-1.866997E-4
4.180000E-8	4.008422E-4
4.190000E-8	9.969488E-4
4.200000E-8	1.392640E-3
4.210000E-8	1.471436E-3
4.220000E-8	1.233336E-3
4.230000E-8	7.554228E-4
4.240000E-8	1.524644E-4
4.250000E-8	-4.402163E-4
4.260000E-8	-8.530373E-4
4.270000E-8	-1.027758E-3
4.280000E-8	-9.249812E-4
4.290000E-8	-5.635487E-4
4.300000E-8	-3.596009E-5
4.310000E-8	5.327393E-4
4.320000E-8	1.067180E-3
4.330000E-8	1.416622E-3
4.340000E-8	1.582778E-3
4.350000E-8	1.512547E-3
4.360000E-8	1.200790E-3
4.370000E-8	7.297286E-4
4.380000E-8	1.695939E-4
4.390000E-8	-3.545688E-4
4.400000E-8	-7.622509E-4
4.410000E-8	-9.129905E-4
4.420000E-8	-7.553991E-4
4.430000E-8	-2.757731E-4
4.440000E-8	3.768609E-4
4.450000E-8	1.024356E-3
4.460000E-8	1.497130E-3
4.470000E-8	1.711249E-3
4.480000E-8	1.587917E-3
4.490000E-8	1.217919E-3
4.500000E-8	7.091732E-4
4.510000E-8	1.713069E-4
4.520000E-8	-3.083191E-4
4.530000E-8	-6.320667E-4
4.540000E-8	-7.416955E-4
4.550000E-8	-6.080854E-4
4.560000E-8	-2.586436E-4
4.570000E-8	2.603803E-4
4.580000E-8	8.136631E-4
4.590000E-8	1.250465E-3
4.600000E-8	1.495417E-3
4.610000E-8	1.449168E-3
4.620000E-8	1.157966E-3
4.630000E-8	6.783401E-4
4.640000E-8	1.182054E-4
4.650000E-8	-3.802630E-4
4.660000E-8	-7.314178E-4
4.670000E-8	-8.701668E-4
4.680000E-8	-7.416955E-4
4.690000E-8	-3.939666E-4
4.700000E-8	9.079822E-5
4.710000E-8	6.235257E-4
4.720000E-8	1.074032E-3
4.730000E-8	1.342965E-3
4.740000E-8	1.363520E-3
4.750000E-8	1.135698E-3
4.760000E-8	7.571358E-4
4.770000E-8	3.014911E-4
4.780000E-8	-1.335982E-4
4.790000E-8	-4.196609E-4
4.800000E-8	-4.813271E-4
4.810000E-8	-3.425781E-4
4.820000E-8	-4.281189E-5
4.830000E-8	3.974163E-4
4.840000E-8	8.102372E-4
4.850000E-8	1.147688E-3
4.860000E-8	1.308706E-3
4.870000E-8	1.329261E-3
4.880000E-8	1.204216E-3
4.890000E-8	9.661157E-4
4.900000E-8	6.355163E-4
4.910000E-8	2.278342E-4
4.920000E-8	-1.387371E-4
4.930000E-8	-4.470681E-4
4.940000E-8	-5.960948E-4
4.950000E-8	-4.984566E-4
4.960000E-8	-1.627184E-4
4.970000E-8	3.134817E-4
4.980000E-8	8.033854E-4
4.990000E-8	1.221345E-3
5.000000E-8	1.442316E-3
5.010000E-8	1.408057E-3
5.020000E-8	1.115142E-3
5.030000E-8	6.063962E-4
5.040000E-8	8.576616E-6
5.050000E-8	-5.429933E-4
5.060000E-8	-9.438236E-4
5.070000E-8	-1.121970E-3
5.080000E-8	-1.051739E-3
5.090000E-8	-7.416955E-4
5.100000E-8	-2.757731E-4
5.110000E-8	2.432508E-4
5.120000E-8	6.869048E-4
5.130000E-8	1.010652E-3
5.140000E-8	1.120281E-3
5.150000E-8	1.022643E-3
5.160000E-8	7.434322E-4
5.170000E-8	3.682961E-4
5.180000E-8	3.437765E-6
5.190000E-8	-2.312364E-4
5.200000E-8	-3.528558E-4
5.210000E-8	-2.963285E-4
5.220000E-8	-1.044781E-4
5.230000E-8	1.832975E-4
5.240000E-8	4.556566E-4
5.250000E-8	6.680624E-4
5.260000E-8	7.862559E-4
5.270000E-8	7.725523E-4
5.280000E-8	6.269516E-4
5.290000E-8	3.991292E-4
5.300000E-8	1.319090E-4
5.310000E-8	-1.438759E-4
5.320000E-8	-3.854019E-4
5.330000E-8	-5.241509E-4
5.340000E-8	-5.155861E-4
5.350000E-8	-2.997544E-4
5.360000E-8	7.880757E-5
5.370000E-8	5.173228E-4
5.380000E-8	9.284308E-4
5.390000E-8	1.195651E-3
5.400000E-8	1.295002E-3
5.410000E-8	1.211068E-3
5.420000E-8	9.712545E-4
5.430000E-8	6.389422E-4
5.440000E-8	3.134817E-4
5.450000E-8	1.028957E-5
5.460000E-8	-2.021162E-4
5.470000E-8	-3.066062E-4
5.480000E-8	-2.740601E-4
5.490000E-8	-9.591334E-5
5.500000E-8	1.747328E-4
5.510000E-8	4.916285E-4
5.520000E-8	7.759782E-4
5.530000E-8	9.644027E-4
5.540000E-8	1.067180E-3
5.550000E-8	1.020930E-3
5.560000E-8	8.410703E-4
5.570000E-8	5.190357E-4
5.580000E-8	1.284831E-4
5.590000E-8	-2.329493E-4
5.600000E-8	-4.676235E-4
5.610000E-8	-4.641976E-4
5.620000E-8	-2.072551E-4
5.630000E-8	2.398249E-4
5.640000E-8	7.639876E-4
5.650000E-8	1.207642E-3
5.660000E-8	1.452594E-3
5.670000E-8	1.420047E-3
5.680000E-8	1.163105E-3
5.690000E-8	7.417192E-4
5.700000E-8	2.895004E-4
5.710000E-8	-9.762629E-5
5.720000E-8	-3.220227E-4
5.730000E-8	-3.562817E-4
5.740000E-8	-2.620695E-4
5.750000E-8	-4.966369E-5
5.760000E-8	2.226954E-4
5.770000E-8	5.053321E-4
5.780000E-8	7.571358E-4
5.790000E-8	9.130142E-4
5.800000E-8	9.644027E-4
5.810000E-8	9.113013E-4
5.820000E-8	7.297286E-4
5.830000E-8	4.522307E-4
5.840000E-8	1.319090E-4
5.850000E-8	-1.798479E-4
5.860000E-8	-3.511429E-4
5.870000E-8	-3.716983E-4
5.880000E-8	-1.729961E-4
5.890000E-8	1.850105E-4
5.900000E-8	6.149609E-4
5.910000E-8	9.866711E-4
5.920000E-8	1.205929E-3
5.930000E-8	1.188799E-3
5.940000E-8	9.815322E-4
5.950000E-8	6.389422E-4
5.960000E-8	2.381119E-4
5.970000E-8	-7.707089E-5
5.980000E-8	-2.586436E-4
5.990000E-8	-3.305875E-4
6.000000E-8	-2.500788E-4
6.010000E-8	-8.049679E-5
6.020000E-8	1.524644E-4
6.030000E-8	4.316753E-4
6.040000E-8	7.006084E-4
6.050000E-8	9.438473E-4
6.060000E-8	1.098013E-3
6.070000E-8	1.120281E-3
6.080000E-8	9.918099E-4
6.090000E-8	7.348674E-4
6.100000E-8	4.213976E-4
6.110000E-8	6.510397E-5
6.120000E-8	-2.398011E-4
6.130000E-8	-4.196609E-4
6.140000E-8	-3.922537E-4
6.150000E-8	-1.473018E-4
6.160000E-8	2.620932E-4
6.170000E-8	7.674135E-4
6.180000E-8	1.190512E-3
6.190000E-8	1.456019E-3
6.200000E-8	1.468010E-3
6.210000E-8	1.231623E-3
6.220000E-8	8.153761E-4
6.230000E-8	3.151947E-4
6.240000E-8	-1.438759E-4
6.250000E-8	-4.607717E-4
6.260000E-8	-5.823912E-4
6.270000E-8	-4.950307E-4
6.280000E-8	-2.757731E-4
6.290000E-8	2.056727E-5
6.300000E-8	3.563055E-4
6.310000E-8	6.766271E-4
6.320000E-8	9.335696E-4
6.330000E-8	1.125420E-3
6.340000E-8	1.207642E-3
6.350000E-8	1.132272E-3
6.360000E-8	9.027365E-4
6.370000E-8	5.327393E-4
6.380000E-8	8.394642E-5
6.390000E-8	-3.031803E-4
6.400000E-8	-5.481322E-4
6.410000E-8	-5.241509E-4
6.420000E-8	-2.586436E-4
6.430000E-8	1.661680E-4
6.440000E-8	6.423681E-4
6.450000E-8	9.849581E-4
6.460000E-8	1.144263E-3
6.470000E-8	1.106578E-3
6.480000E-8	8.838941E-4
6.490000E-8	5.858408E-4
6.500000E-8	2.706580E-4
6.510000E-8	3.940972E-5
6.520000E-8	-9.762629E-5
6.530000E-8	-1.301723E-4
6.540000E-8	-8.563564E-5
6.550000E-8	5.311332E-5
6.560000E-8	2.655191E-4
6.570000E-8	5.447300E-4
6.580000E-8	8.273667E-4
6.590000E-8	1.026069E-3
6.600000E-8	1.077457E-3
6.610000E-8	9.250049E-4
6.620000E-8	5.978314E-4
6.630000E-8	2.175565E-4
6.640000E-8	-1.695702E-4
6.650000E-8	-4.230868E-4
6.660000E-8	-5.018825E-4
6.670000E-8	-3.973925E-4
6.680000E-8	-1.592925E-4
6.690000E-8	1.558903E-4
6.700000E-8	5.224616E-4
6.710000E-8	8.770423E-4
6.720000E-8	1.128846E-3
6.730000E-8	1.233336E-3
6.740000E-8	1.166531E-3
6.750000E-8	9.644027E-4
6.760000E-8	6.252386E-4
6.770000E-8	2.329731E-4
6.780000E-8	-1.061910E-4
6.790000E-8	-3.305875E-4
6.800000E-8	-3.716983E-4
6.810000E-8	-2.278105E-4
6.820000E-8	3.940972E-5
6.830000E-8	3.477407E-4
6.840000E-8	6.766271E-4
6.850000E-8	8.924588E-4
6.860000E-8	9.609768E-4
6.870000E-8	8.975977E-4
6.880000E-8	7.023214E-4
6.890000E-8	4.659343E-4
6.900000E-8	1.935752E-4
6.910000E-8	-4.623779E-5
6.920000E-8	-2.106810E-4
6.930000E-8	-2.757731E-4
6.940000E-8	-2.072551E-4
6.950000E-8	-4.109894E-5
6.960000E-8	1.781587E-4
6.970000E-8	4.265364E-4
6.980000E-8	6.406552E-4
6.990000E-8	7.674135E-4
7.000000E-8	8.256538E-4
7.010000E-8	7.776912E-4
7.020000E-8	6.440811E-4
7.030000E-8	4.950544E-4
7.040000E-8	3.271853E-4
7.050000E-8	2.141306E-4
7.060000E-8	2.107047E-4
7.070000E-8	2.706580E-4
7.080000E-8	3.700091E-4
7.090000E-8	4.368141E-4
7.100000E-8	4.813508E-4
7.110000E-8	5.087580E-4
7.120000E-8	5.258875E-4
7.130000E-8	5.361652E-4
7.140000E-8	5.019062E-4
7.150000E-8	3.648702E-4
7.160000E-8	1.541774E-4
7.170000E-8	-8.734859E-5
7.180000E-8	-2.466529E-4
7.190000E-8	-3.203098E-4
7.200000E-8	-2.192457E-4
7.210000E-8	-1.197879E-5
7.220000E-8	2.226954E-4
7.230000E-8	4.299623E-4
7.240000E-8	5.669983E-4
7.250000E-8	6.286645E-4
7.260000E-8	6.320904E-4
7.270000E-8	5.772760E-4
7.280000E-8	4.488048E-4
7.290000E-8	2.946393E-4
7.300000E-8	1.199184E-4
7.310000E-8	-3.938599E-5
7.320000E-8	-1.558666E-4
7.330000E-8	-1.558666E-4
7.340000E-8	-6.336729E-5
7.350000E-8	7.195577E-5
7.360000E-8	2.261213E-4
7.370000E-8	3.717220E-4
7.380000E-8	4.556566E-4
7.390000E-8	5.378782E-4
7.400000E-8	5.413041E-4
7.410000E-8	5.241746E-4
7.420000E-8	4.727861E-4
7.430000E-8	3.580184E-4
7.440000E-8	2.261213E-4
7.450000E-8	9.593707E-5
7.460000E-8	-1.701085E-6
7.470000E-8	-1.883059E-5
7.480000E-8	6.863665E-6
7.490000E-8	1.267702E-4
7.500000E-8	3.271853E-4
7.510000E-8	5.464429E-4
7.520000E-8	7.451451E-4
7.530000E-8	8.410703E-4
7.540000E-8	7.725523E-4
7.550000E-8	5.207487E-4
7.560000E-8	1.610292E-4
7.570000E-8	-1.781349E-4
7.580000E-8	-4.008184E-4
7.590000E-8	-4.333645E-4
7.600000E-8	-2.791990E-4
7.610000E-8	-2.396944E-5
7.620000E-8	2.329731E-4
7.630000E-8	4.419530E-4
7.640000E-8	5.327393E-4
7.650000E-8	4.642213E-4
7.660000E-8	2.929263E-4
7.670000E-8	8.737232E-5
7.680000E-8	-1.079040E-4
7.690000E-8	-2.021162E-4
7.700000E-8	-1.695702E-4
7.710000E-8	-5.994139E-5
7.720000E-8	7.709462E-5
